Wavelength(nm)	n	k
203.28	2.804	1.233
210.17	2.813	1.095
217.54	2.817	0.976
225.45	2.808	0.856
233.96	2.787	0.74
243.14	2.764	0.63
253.06	2.722	0.544
263.83	2.674	0.479
275.56	2.629	0.43
288.37	2.597	0.402
302.44	2.572	0.376
317.95	2.555	0.361
335.14	2.56	0.349
354.29	2.615	0.339
364.71	2.716	0.261
370.15	2.664	0.167
375.76	2.675	0
400	2.565	0
427.59	2.51	0
459.26	2.471	0
496	2.436	0
539.13	2.408	0
590.48	2.393	0
620	2.383	0
688.89	2.365	0
729.41	2.359	0
775	2.351	0
826.67	2.346	0
885.71	2.34	0
953.85	2.336	0
2480	2.264	0.0001
3100	2.255	0.0002
